probe voltage (V), probe current (A), resistance (9.9e37 if not enabled) , timestamp , status word ,
-4.600000E+01,-1.142334E-07,+9.910000E+37,+2.447528E+03,+2.150800E+04,
-4.599000E+01,-9.150354E-08,+9.910000E+37,+2.448604E+03,+2.150800E+04,
-4.598000E+01,-8.897806E-08,+9.910000E+37,+2.449681E+03,+2.150800E+04,
-4.597000E+01,-8.342188E-08,+9.910000E+37,+2.450752E+03,+2.150800E+04,
-4.596000E+01,-8.746269E-08,+9.910000E+37,+2.451811E+03,+2.150800E+04,
-4.595000E+01,-8.241161E-08,+9.910000E+37,+2.452871E+03,+2.150800E+04,
-4.594000E+01,-8.443202E-08,+9.910000E+37,+2.453928E+03,+2.150800E+04,
-4.593000E+01,-8.392694E-08,+9.910000E+37,+2.454987E+03,+2.150800E+04,
-4.592000E+01,-8.594735E-08,+9.910000E+37,+2.456044E+03,+2.150800E+04,
-4.591000E+01,-8.443205E-08,+9.910000E+37,+2.457102E+03,+2.150800E+04,
-4.590000E+01,-8.140135E-08,+9.910000E+37,+2.458163E+03,+2.150800E+04,
-4.589000E+01,-8.190651E-08,+9.910000E+37,+2.459221E+03,+2.150800E+04,
-4.588000E+01,-7.988604E-08,+9.910000E+37,+2.460279E+03,+2.150800E+04,
-4.587000E+01,-8.039117E-08,+9.910000E+37,+2.461335E+03,+2.150800E+04,
-4.586000E+01,-8.342177E-08,+9.910000E+37,+2.462409E+03,+2.150800E+04,
-4.585000E+01,-8.190649E-08,+9.910000E+37,+2.463468E+03,+2.150800E+04,
-4.584000E+01,-8.291676E-08,+9.910000E+37,+2.464526E+03,+2.150800E+04,
-4.583000E+01,-8.140137E-08,+9.910000E+37,+2.465582E+03,+2.150800E+04,
-4.582000E+01,-8.089625E-08,+9.910000E+37,+2.466662E+03,+2.150800E+04,
-4.581000E+01,-8.140137E-08,+9.910000E+37,+2.467722E+03,+2.150800E+04,
-4.580000E+01,-7.887591E-08,+9.910000E+37,+2.468779E+03,+2.150800E+04,
-4.579000E+01,-8.190641E-08,+9.910000E+37,+2.469838E+03,+2.150800E+04,
-4.578000E+01,-8.039112E-08,+9.910000E+37,+2.470918E+03,+2.150800E+04,
-4.577000E+01,-8.241158E-08,+9.910000E+37,+2.471978E+03,+2.150800E+04,
-4.576000E+01,-7.887585E-08,+9.910000E+37,+2.473034E+03,+2.150800E+04,
-4.575000E+01,-7.988604E-08,+9.910000E+37,+2.474092E+03,+2.150800E+04,
-4.574000E+01,-7.837070E-08,+9.910000E+37,+2.475149E+03,+2.150800E+04,
-4.573000E+01,-8.089620E-08,+9.910000E+37,+2.476207E+03,+2.150800E+04,
-4.572000E+01,-7.887581E-08,+9.910000E+37,+2.477265E+03,+2.150800E+04,
-4.571000E+01,-8.039115E-08,+9.910000E+37,+2.478322E+03,+2.150800E+04,
-4.570000E+01,-8.039112E-08,+9.910000E+37,+2.479381E+03,+2.150800E+04,
-4.569000E+01,-7.988601E-08,+9.910000E+37,+2.480463E+03,+2.150800E+04,
-4.568000E+01,-8.089622E-08,+9.910000E+37,+2.481520E+03,+2.150800E+04,
-4.567000E+01,-7.534001E-08,+9.910000E+37,+2.482577E+03,+2.150800E+04,
-4.566000E+01,-7.988602E-08,+9.910000E+37,+2.483635E+03,+2.150800E+04,
-4.565000E+01,-7.786554E-08,+9.910000E+37,+2.484692E+03,+2.150800E+04,
-4.564000E+01,-7.685535E-08,+9.910000E+37,+2.485749E+03,+2.150800E+04,
-4.563000E+01,-7.432980E-08,+9.910000E+37,+2.486807E+03,+2.150800E+04,
-4.562000E+01,-7.685539E-08,+9.910000E+37,+2.487868E+03,+2.150800E+04,
-4.561000E+01,-7.786566E-08,+9.910000E+37,+2.488927E+03,+2.150800E+04,
-4.560000E+01,-7.483494E-08,+9.910000E+37,+2.490005E+03,+2.150800E+04,
-4.559000E+01,-7.079407E-08,+9.910000E+37,+2.491063E+03,+2.150800E+04,
-4.558000E+01,-7.534000E-08,+9.910000E+37,+2.492122E+03,+2.150800E+04,
-4.557000E+01,-7.331968E-08,+9.910000E+37,+2.493180E+03,+2.150800E+04,
-4.556000E+01,-7.382471E-08,+9.910000E+37,+2.494239E+03,+2.150800E+04,
-4.555000E+01,-7.685538E-08,+9.910000E+37,+2.495301E+03,+2.150800E+04,
-4.554000E+01,-7.230940E-08,+9.910000E+37,+2.496359E+03,+2.150800E+04,
-4.553000E+01,-7.230940E-08,+9.910000E+37,+2.497416E+03,+2.150800E+04,
-4.552000E+01,-7.483496E-08,+9.910000E+37,+2.498474E+03,+2.150800E+04,
-4.551000E+01,-7.432984E-08,+9.910000E+37,+2.499535E+03,+2.150800E+04,
-4.550000E+01,-7.230939E-08,+9.910000E+37,+2.500594E+03,+2.150800E+04,
-4.549000E+01,-7.129920E-08,+9.910000E+37,+2.501668E+03,+2.150800E+04,
-4.548000E+01,-7.230936E-08,+9.910000E+37,+2.502724E+03,+2.150800E+04,
-4.547000E+01,-6.927878E-08,+9.910000E+37,+2.503782E+03,+2.150800E+04,
-4.546000E+01,-7.382469E-08,+9.910000E+37,+2.504839E+03,+2.150800E+04,
-4.545000E+01,-7.635023E-08,+9.910000E+37,+2.505913E+03,+2.150800E+04,
-4.544000E+01,-7.180427E-08,+9.910000E+37,+2.506969E+03,+2.150800E+04,
-4.543000E+01,-7.028898E-08,+9.910000E+37,+2.508027E+03,+2.150800E+04,
-4.542000E+01,-7.028894E-08,+9.91000


























































































































































































































































































































































































































































current through plasma (-mA) <tab> voltage across plasma (-V) <tab> time (sec)
3.431047	445.882807	0.002000
3.424874	446.363572	0.102000
3.435312	445.559204	0.202000
3.432637	445.778290	0.302000
3.421612	446.661662	0.402000
3.428291	446.171957	0.502000
3.437202	445.405016	0.602000
3.428133	446.098733	0.702000
3.422345	446.574450	0.802000
3.432687	445.826557	0.902000
3.434034	445.701734	1.002000
3.424212	446.389654	1.102000
3.427153	446.226008	1.202000
3.435608	445.549527	1.302000
3.428872	446.062949	1.402000
3.422806	446.486221	1.502000
3.432175	445.812261	1.602000
3.434678	445.661460	1.702000
3.423786	446.447398	1.802000
3.425164	446.360866	1.902000
3.436450	445.458084	2.002000
3.431190	445.824059	2.102000
3.421460	446.635184	2.202000
3.429117	446.063514	2.302000
3.435413	445.566283	2.402000
3.426187	446.231875	2.502000
3.424344	446.368700	2.602000
3.434318	445.650837	2.702000
3.431315	445.868479	2.802000
3.422368	446.534986	2.903000
3.429601	445.993555	3.002000
3.436220	445.521212	3.102000
3.426321	446.230548	3.202000
3.423280	446.461407	3.302000
3.434158	445.655396	3.402000
3.433938	445.622813	3.502000
3.422629	446.536818	3.602000
3.426630	446.254025	3.702000
3.436385	445.472233	3.802000
3.429674	445.965219	3.902000
3.423356	446.437187	4.003000
3.432292	445.804260	4.103000
3.433745	445.655712	4.202000
3.424023	446.369164	4.302000
3.427059	446.198739	4.403000
3.436865	445.450364	4.502000
3.429966	445.965793	4.603000
3.422116	446.528606	4.703000
3.431750	445.820632	4.802000
3.436253	445.438654	4.902000
3.425443	446.234647	5.002000
3.424608	446.354765	5.102000
3.435742	445.523855	5.202000
3.432874	445.695435	5.302000
3.423486	446.416119	5.402000
3.429624	445.878821	5.502000
3.435359	445.502400	5.602000
3.426471	446.201352	5.702000
3.425195	446.296109	5.802000
3.435459	445.515769	5.902000
3.432661	445.714831	6.002000
3.422238	446.511456	6.102000
3.428673	445.995810	6.202000
3.436992	445.366181	6.302000
3.427612	446.079775	6.402000
3.423493	446.424659	6.502000
3.433772	445.653315	6.602000
3.433463	445.615528	6.702000
3.423488	446.363081	6.802000
3.428120	446.037731	6.902000
3.435563	445.508218	7.002000
3.427854	446.089104	7.102000
3.423807	446.377341	7.202000
3.433950	445.599338	7.302000
3.433675	445.591273	7.402000
3.422055	446.468259	7.502000
3.426554	446.158325	7.602000
3.436605	445.387073	7.702000
3.429643	445.877832	7.802000
3.422017	446.484992	7.902000
3.431200	445.819200	8.002000
3.434359	445.536399	8.102000
3.424638	446.244172	8.202000
3.425122	446.222679	8.302000
3.435006	445.467686	8.402000
3.429765	445.850865	8.502000
3.422355	446.431240	8.602000
3.430234	445.830295	8.702000
3.434872	445.437705	8.802000
3.424015	446.283792	8.902000
3.423062	446.353601	9.002000
3.434951	445.464393	9.102000
3.432302	445.639353	9.202000
3.421746	446.474237	9.303000
3.427373	446.046100	9.404000
3.435076	445.451134	9.502000
3.427330	445.969460	9.602000
3.423005	446.299826	9.702000
3.432836	445.587522	9.802000
3.432490	445.641621	9.902000
3.422383	446.412004	10.002000
3.427170	446.036079	10.102000
3.435564	445.399985	10.202000
3.427889	445.932105	10.302000
3.421759	446.418043	10.402000
3.432348	445.651003	10.502000
3.434662	445.446086	10.602000
3.423317	446.320014	10.702000
3.424738	446.209252	10.802000
3.434600	445.467403	10.902000
3.430216	445.817021	11.002000
3.422831	446.323794	11.102000
3.430971	445.731254	11.202000
3.433982	445.494252	11.302000
3.423929	446.271063	11.402000
3.424979	446.209873	11.502000
3.435726	445.358306	11.602000
3.430798	445.704960	11.702000
3.421598	446.419653	11.802000
3.429774	445.828765	11.902000
3.435954	445.329109	12.002000
3.425669	446.103730	12.102000
3.423262	446.288370	12.202000
3.434390	445.421119	12.302000
3.432369	445.574355	12.402000
3.423335	446.269479	12.502000
3.428849	445.864304	12.602000
3.434943	445.417007	12.702000
3.426076	446.085933	12.802000
3.423890	446.205251	12.902000
3.434637	445.393930	13.002000
3.433406	445.474823	13.102000
3.422249	446.329824	13.202000
3.426874	446.034355	13.302000
3.436212	445.334797	13.402000
3.428362	445.873596	13.502000
3.422389	446.301072	13.602000
3.432076	445.590244	13.702000
3.434210	445.434387	13.802000
3.423797	446.197620	13.903000
3.425887	446.067710	14.002000
3.434839	445.387153	14.102000
3.428744	445.841282	14.202000
3.422360	446.342739	14.302000
3.432155	445.596026	14.402000
3.434974	445.382940	14.502000
3.423405	446.203772	14.602000
3.423694	446.237439	14.702000
3.435037	445.409923	14.802000
3.431338	445.654697	14.902000
3.421980	446.282738	15.002000
3.428822	445.816390	15.102000
3.434836	445.360939	15.202000
3.425438	446.061438	15.302000
3.423148	446.269606	15.402000
3.433330	445.496458	15.502000
3.431275	445.617726	15.602000
3.421937	446.304098	15.703000
3.427788	445.912497	15.802000
3.435278	445.319436	15.902000
3.425400	446.015086	16.003000
3.421235	446.371795	16.102000
3.432590	445.538057	16.203000
3.433107	445.505187	16.302000
3.422144	446.220283	16.402000
3.425138	446.032729	16.502000
3.434137	445.365318	16.602000
3.427495	445.867084	16.702000
3.421707	446.300875	16.802000
3.431052	445.626958	16.902000
3.432920	445.431904	17.002000
3.422268	446.229174	17.102000
3.424393	446.115403	17.202000
3.434592	445.298763	17.302000
3.428071	445.770552	17.403000
3.420275	446.357642	17.502000
3.429529	445.711504	17.602000
3.434482	445.327438	17.702000
3.423450	446.083362	17.802000
3.422472	446.195979	17.902000
3.432856	445.385722	18.002000
3.429703	445.665846	18.102000
3.421509	446.267223	18.202000
3.428445	445.757519	18.302000
3.433716	445.347621	18.402000
3.423838	446.042689	18.502000
3.422055	446.188608	18.602000
3.433034	445.402442	18.702000
3.431031	445.518108	18.802000
3.420882	446.265952	18.902000
3.426631	445.874072	19.002000
3.434842	445.244139	19.102000
3.426042	445.841811	19.202000
3.420667	446.240799	19.302000
3.430912	445.508621	19.402000
3.432499	445.394894	19.502000
3.422335	446.158463	19.602000
3.425639	445.927699	19.702000
3.434131	445.231278	19.802000
3.426570	445.791682	19.902000
3.421163	446.188193	20.002000
3.431278	445.442950	20.102000
3.433413	445.303347	20.202000
3.421891	446.143225	20.302000
3.423376	446.043984	20.402000
3.433973	445.245635	20.502000
3.428958	445.617094	20.602000
3.420378	446.231688	20.702000
3.428377	445.603890	20.802000
3.433606	445.230320	20.902000
3.424139	445.947760	21.002000
3.422573	446.081706	21.102000
3.432646	445.337941	21.202000
3.429145	445.548438	21.302000
3.420599	446.212545	21.403000
3.427796	445.691119	21.502000
3.434448	445.196172	21.602000
3.424170	445.957281	21.702000
3.420697	446.188547	21.802000
3.432128	445.368418	21.902000
3.431955	445.317701	22.002000
3.421091	446.143886	22.102000
3.425063	445.897139	22.202000
3.433774	445.220944	22.302000
3.426286	445.774901	22.402000
3.420603	446.223967	22.502000
3.429959	445.527899	22.602000
3.431800	445.318145	22.702000
3.421693	446.066244	22.802000
3.424395	445.915600	22.902000
3.433649	445.235968	23.002000
3.426838	445.737235	23.102000
3.418930	446.299638	23.202000
3.428993	445.541618	23.302000
3.433629	445.206186	23.402000
3.422824	446.004679	23.502000
3.422018	446.087582	23.602000
3.432080	445.336885	23.702000
3.428456	445.601766	23.802000
3.419948	446.271697	23.902000
3.427185	445.699539	24.002000
3.432842	445.246455	24.102000
3.423160	445.934674	24.202000
3.421476	446.122665	24.302000
3.431912	445.387577	24.402000
3.429223	445.537366	24.502000
3.419052	446.282928	24.602000
3.425835	445.763184	24.702000
3.434294	445.125753	24.802000
3.425100	445.835264	24.903000
3.419708	446.247149	25.002000
3.429618	445.451586	25.102000
3.430621	445.362977	25.202000
3.420862	446.088132	25.302000
3.424233	445.884812	25.402000
3.432608	445.223408	25.502000
3.425441	445.728492	25.602000
3.419579	446.162778	25.702000
3.429296	445.498754	25.802000
3.431622	445.311142	25.902000
3.420691	446.109787	26.002000
3.422472	445.962843	26.102000
3.433354	445.102209	26.202000
3.427415	445.599965	26.302000
3.418619	446.258214	26.402000
3.427590	445.617255	26.502000
3.432308	445.214305	26.602000
3.422546	445.966459	26.702000
3.422399	445.974980	26.802000
3.432106	445.242736	26.902000
3.427179	445.613762	27.002000
3.419199	446.189373	27.102000
3.427692	445.519135	27.202000
3.433438	445.140533	27.302000
3.422776	445.913808	27.402000
3.420566	446.056963	27.502000
3.432000	445.198575	27.602000
3.429759	445.363621	27.702000
3.419296	446.164200	27.804000
3.425101	445.739624	27.902000
3.433141	445.123737	28.002000
3.424842	445.707665	28.102000
3.420687	446.027510	28.202000
3.430206	445.352392	28.302000
3.429733	445.355162	28.403000
3.419669	446.074400	28.502000
3.424845	445.706895	28.602000
3.433852	445.030099	28.702000
3.424637	445.723215	28.802000
3.418631	446.167994	28.902000
3.429286	445.375038	29.002000
3.431540	445.192050	29.102000
3.420827	446.025571	29.202000
3.422556	445.903857	29.302000
3.432469	445.142507	29.402000
3.426963	445.514965	29.502000
3.419423	446.080815	29.602000
3.427623	445.503332	29.702000
3.431017	445.234255	29.802000
3.420838	445.978023	29.902000
3.422177	445.889043	30.002000
3.432654	445.091907	30.102000
3.427133	445.517053	30.202000
3.417837	446.194417	30.302000
3.425756	445.581427	30.402000
3.432345	445.060080	30.502000
3.422733	445.781923	30.602000
3.420079	446.026713	30.702000
3.430086	445.287747	30.802000
3.428591	445.354228	30.902000
3.418934	446.054732	31.002000
3.425038	445.641588	31.102000
3.431744	445.140944	31.202000
3.422545	445.831608	31.302000
3.419644	446.025382	31.402000
3.430408	445.200975	31.502000
3.428859	445.356562	31.602000
3.418174	446.136252	31.702000
3.422993	445.794660	31.802000
3.432377	445.081508	31.902000
3.424879	445.607252	32.002000
3.418366	446.167531	32.102000
3.427883	445.407339	32.202000
3.429442	445.252857	32.302000
3.419626	445.968399	32.402000
3.422728	445.793729	32.502000
3.431420	445.165430	32.602000
3.424741	445.642834	32.702000
3.418269	446.127788	32.802000
3.427758	445.393930	32.902000
3.430749	445.148993	33.002000
3.419363	446.007823	33.102000
3.420854	445.904677	33.202000
3.431645	445.080464	33.302000
3.426961	445.426262	33.402000
3.418011	446.126808	33.502000
3.425484	445.576836	33.602000
3.430454	445.120076	33.705000
3.421016	445.802480	33.802000
3.421148	445.857155	33.902000
3.430933	445.133992	34.002000
3.426531	445.467662	34.102000
3.417711	446.124328	34.202000
3.426001	445.470617	34.302000
3.431827	445.025677	34.402000
3.421333	445.824166	34.502000
3.419410	445.983169	34.602000
3.430406	445.150220	34.702000
3.428490	445.291883	34.802000
3.418553	446.013320	34.902000
3.424026	445.638769	35.002000
3.431198	445.052121	35.102000
3.423003	445.628460	35.202000
3.420068	445.904788	35.303000
3.429958	445.160245	35.402000
3.427908	445.338436	35.502000
3.417808	446.042757	35.602000
3.423675	445.595350	35.702000
3.432666	444.906962	35.802000
3.423714	445.581952	35.902000
3.417874	446.036315	36.002000
3.428136	445.258767	36.102000
3.429657	445.116183	36.202000
3.419107	445.892407	36.302000
3.421846	445.716105	36.402000
3.430704	445.039777	36.502000
3.423995	445.503467	36.602000
3.418173	445.908158	36.702000
3.427415	445.267893	36.802000
3.428760	445.164757	36.902000
3.417990	445.985870	37.007000
3.421337	445.686312	37.102000
3.431624	444.882315	37.202000
3.425198	445.384229	37.302000
3.416532	446.060302	37.403000
3.425351	445.412080	37.503000
3.429770	445.063349	37.602000
3.419976	445.758147	37.702000
3.419650	445.779678	37.802000
3.429600	445.091472	37.902000
3.424805	445.386309	38.002000
3.416757	445.995058	38.102000
3.425007	445.384350	38.202000
3.429518	445.052417	38.302000
3.418911	445.854731	38.402000
3.418670	445.836073	38.502000
3.430075	444.977503	38.602000
3.425937	445.287152	38.702000
3.416005	446.059434	38.802000
3.422734	445.599599	38.902000
3.429743	445.006311	39.002000
3.420741	445.613248	39.102000
3.418396	445.836754	39.202000
3.428049	445.137275	39.302000
3.425246	445.356130	39.402000
3.416422	445.980223	39.502000
3.423208	445.489148	39.602000
3.429970	444.991165	39.703000
3.420111	445.715417	39.802000
3.416602	445.982825	39.902000
3.427966	445.098239	40.002000
3.427379	445.107703	40.102000
3.415963	446.004996	40.202000
3.420468	445.695743	40.302000
3.429343	444.975991	40.402000
3.422154	445.476340	40.502000
3.417149	445.856787	40.602000
3.426227	445.195647	40.702000
3.426592	445.171754	40.802000
3.416465	445.929636	40.902000
3.420651	445.602070	41.002000
3.430213	444.880690	41.102000
3.422388	445.457539	41.202000
3.415386	446.004745	41.302000
3.425448	445.216393	41.402000
3.428477	444.972809	41.502000
3.417421	445.834173	41.603000
3.418484	445.738596	41.702000
3.428734	444.978406	41.802000
3.424035	445.272374	41.902000
3.416468	445.833946	42.002000
3.424172	445.270883	42.102000
3.427768	445.026762	42.202000
3.417964	445.744770	42.302000
3.418796	445.689570	42.402000
3.429694	444.854091	42.502000
3.424430	445.227783	42.602000
3.414641	445.975372	42.702000
3.422372	445.375185	42.802000
3.429300	444.841557	42.902000
3.419449	445.602898	43.002000
3.416996	445.796860	43.102000
3.427276	445.025741	43.202000
3.425622	445.097844	43.302000
3.415754	445.798540	43.402000
3.421563	445.420978	43.502000
3.428481	444.904822	43.602000
3.419368	445.600344	43.703000
3.416515	445.793358	43.802000
3.427365	444.968121	43.902000
3.426362	445.024755	44.002000
3.414918	445.898747	44.102000
3.419516	445.564775	44.202000
3.429402	444.814089	44.302000
3.422026	445.348236	44.402000
3.415238	445.908232	44.502000
3.424533	445.202062	44.602000
3.426566	445.013378	44.702000
3.416629	445.708902	44.802000
3.418744	445.584990	44.902000
3.428133	444.908889	45.002000
3.421807	445.394114	45.104000
3.414574	445.907899	45.202000
3.423967	445.197485	45.302000
3.427487	444.890206	45.402000
3.416392	445.711128	45.502000
3.416186	445.762072	45.602000
3.427698	444.924138	45.702000
3.424210	445.107490	45.802000
3.414513	445.831395	45.903000
3.420836	445.414748	46.002000
3.426964	444.948631	46.102000
3.418004	445.561807	46.207000
3.416635	445.714404	46.302000
3.426607	444.971857	46.402000
3.423657	445.250435	46.502000
3.414104	445.892732	46.602000
3.420451	445.402490	46.702000
3.428030	444.825914	46.802000
3.418864	445.464894	46.902000
3.414232	445.867142	47.002000
3.425239	445.078458	47.102000
3.426001	444.985028	47.202000
3.415045	445.750725	47.302000
3.417809	445.555251	47.403000
3.426480	444.888363	47.503000
3.420045	445.359893	47.602000
3.414807	445.716611	47.702000
3.423766	445.110353	47.802000
3.425123	445.016183	47.902000
3.414464	445.784132	48.002000
3.416942	445.588063	48.102000
3.427529	444.785244	48.207000
3.421317	445.250243	48.302000
3.413290	445.871866	48.402000
3.421790	445.279994	48.502000
3.427075	444.848358	48.602000
3.416963	445.596657	48.702000
3.415419	445.717637	48.802000
3.426053	444.918587	48.902000
3.423941	445.041473	49.002000
3.415183	445.718942	49.102000
3.421313	445.291640	49.202000
3.427038	444.876522	49.303000
3.416957	445.594853	49.402000
3.415105	445.727992	49.502000
3.426408	444.848729	49.602000
3.424820	444.916792	49.702000
3.414016	445.794154	49.803000
3.418769	445.469656	49.902000
3.427150	444.798320	50.002000
3.419301	445.335037	50.102000
3.414348	445.684192	50.202000
3.423988	444.997738	50.302000
3.424742	444.941280	50.402000
3.414856	445.650054	50.502000
3.418250	445.443011	50.602000
3.426720	444.784073	50.702000
3.418960	445.349135	50.802000
3.413654	445.747424	50.902000
